List of Airglow lines as seen in APOGEE combined frames. The wavelength
is in vacuum in Angstroms, the flux is relative. DmBiz, 26.01.2012.

Chip C
------
15148.030  1.746E6
15150.010  2.000E6
15152.170  2.056E6
15153.190  2.588E5
15187.130  1.631E8
15230.800  3.800E5
15240.950  6.100E8
15264.050  1.377E5
15265.000  3.168E5
15265.840  3.983E5
15267.020  0.964E5
15268.750  1.332E6  
15270.390  1.381E6
15282.600  2.202E6
15285.020  2.383E6
15287.800  2.370E8
15302.870  1.294E5
15306.160  7.210E5
15307.900  2.475E5
15315.600  1.998E5
15310.920  7.137E6
15332.410  7.414E8
15341.840  0.93E5
15346.290  0.68E5
15348.890  1.545E7
15350.460  2.540E5
15353.410  1.539E5
15355.760  5.200E5
15357.290  2.762E5
15373.020  6.852E6
15375.300  5.471E6
15376.730  1.395E7
15378.340  4.817E6
15379.590  4.488E6
15382.710  1.219E5
15387.280  5.029E6
15388.210  5.969E6
15389.140  3.172E6
15391.650  4.136E6
15395.360  2.156E8
15405.180  6.392E6
15407.300  6.740E6
15411.430  6.234E6
15413.400  1.294E6
15418.350  1.396E5
15423.700  2.356E6
15426.570  1.640E6
15431.710  2.756E8
15432.650  2.571E8
15438.840  7.371E6
15441.900  1.541E5
15462.140  2.350E7
15468.190  5.406E6
15474.250  1.490E7
15476.080  8.867E5
15488.470  1.680E7
15495.710  0.9E5
15500.870  6.968E7
15509.790  1.302E8
15517.790  4.190E7
15521.840  1.522E5
15523.560  1.236E5
15528.970  1.236E5 ?
15530.530  1.135E5 ?
15539.720  1.339E8
15540.960  1.318E8
15542.690  6.073E6
15546.130  1.778E8
15548.000  4.053E5
15552.910  2.430E5
15558.640  0.400E5
15560.970  3.265E6
15562.190  2.958E6
15564.450  2.343E6
15570.120  8.732E7
15573.000  2.355E6
15574.950  8.936E5
15576.310  2.066E6
15580.870  4.546E6
15582.980  2.964E5
15584.250  2.316E5
15589.040  3.585E5
15597.590  3.569E8
15601.800  1.318E6
15612.690  4.115E6
15613.940  3.932E6
15620.080  2.420E6
15621.410  7.055E5
15628.960  1.856E6
15631.490  2.031E8
15637.810  0.70E5
15640.770  3.396E6
15646.070  2.021E5
15647.660  1.391E5
15654.920  4.411E8
15656.220  4.674E7
15657.760  3.954E7
15659.160  6.280E5
15660.150  5.817E5
15661.290  0.66E5
15662.920  0.70E5
15666.190  5.436E5
15671.490  5.481E5
15674.560  3.925E5
15677.680  2.040E5
15679.320  1.001E6
15683.920  5.324E6
15687.740  1.539E6
15689.370  4.811E5
15692.590  1.669E6
15693.850  0.874E5
15702.500  1.451E8
15705.930  2.778E6
15711.420  6.207E6
15715.640  3.663E5
15718.460  3.338E5
15719.370  4.495E6
15721.410  2.264E6
15724.720  1.125E7
15727.540  2.330E5
15729.010  1.707E5
15730.910  3.074E6
15733.030  5.372E6
15734.790  2.246E6
15738.170  8.157E6
15739.430  5.607E6
15741.260  0.92E5
15745.800  5.434E5
15746.760  6.907E6
15751.820  9.318E6
15756.530  1.623E5
15759.920  1.139E7
15760.750  1.657E7
15764.090  8.092E5
15765.560  1.042E7
15767.720  4.962E6
15774.690  5.472E6
15779.550  1.091E7
15781.180  1.746E7
15783.110  1.639E7
15788.890  2.428E6
15793.580  9.680E6
15798.360  3.486E5
15800.200  2.102E5
15803.170  2.565E7
15804.230  8.082E6
15808.240  4.527E7

Chip B
------
15862.660  6.424E6
15863.870  6.629E6
15869.070  6.522E7
15870.890  6.242E7
15873.360  4.755E6
15875.560  3.656E6
15877.040  2.205E6
15883.100  5.521E6
15887.900  4.289E6
15889,990  4.459E6
15891.060  2.835E6
15892.710  1.713E6
15896.240  2.070E7
15897.100  5.402E6
15898.190  1.005E7
15899.370  1.816E7
15902.560  5.348E6
15904.650  0.5E5
15910.410  0.7E5
15912.610  2.699E6
15915.140  6.768E6
15917.380  8.324E6
15925.270  3.563E6
15927.540  1.487E6
15929.870  4.117E6
15932.230  1.328E6
15934.990  4.252E6
15942.580  8.811E5
15945.400  2.651E5
15946.000  3.022E5
15947.210  8.919E5
15948.800  2.103E5
15954.300  2.205E6
15957.640  4.186E5
15962.360  3.864E5
15966.830  1.549E5
15967.980  1.959E5
15970.500  3.430E5
15972.610  2.430E8
15977.930  1.186E6
15983.730  1.814E6
16013.330  1.320E6
16014.300  1.992E5
16015.190  2.860E5
16018.370  2.229E5
16022.900  1.498E5
16023.600  1.081E5
16024.500  0.939E5
16026.300  0.735E5
16030.830  7.921E8
16041.260  3.782E6
16042.930  4.245E6
16043.820  9.553E5
16050.560  0.55E5
16051.440  2.666E5
16053.470  4.022E5
16054.770  1.789E5
16057.140  4.869E6
16059.860  3.979E6
16066.080  2.343E6
16069.470  1.367E6
16072.950  5.782E5
16073.860  4.399E6
16079.770  3.048E8
16081.280  1.878E5
16085.600  1.089E5
16089.200  0.98E5
16090.100  0.88E5
16092.580  5.248E5
16093.610  4.543E5
16094.700  0.42E5
16095.300  0.41E5
16097.650  2.930E6
16102.130  3.519E5
16102.940  4.274E5
16104.380  2.574E5
16108.210  0.97E5
16109.160  0.97E5
16113.370  0.46E5
16114.370  0.77E5
16116.460  0.3E5
16118.780  7.689E6
16122.460  5.794E5
16128.300  4.107E8
16128.960  4.036E8
16133.200  0.51E5
16151.200  2.422E5
16151.900  1.319E5
16153.100  2.337E5
16154.000  0.5E5
16155.430  2.198E5
16159.600  1.545E7
16171.440  1.934E6
16173.270  5.280E5
16174.820  4.782E5
16187.500  2.000E5
16188.300  1.352E5
16189.200  5.141E5
16194.650  2.315E8
16196.570  2.135E6
16203.930  0.95E5
16208.520  4.503E6
16209.700  8.470E5
16210.400  9.442E5
16211.630  3.516E6
16221.160  1.293E7
16223.250  4.796E6
16224.600  4.479E6
16229.140  8.955E6
16230.100  8.185E6
16234.910  2.709E8
16235.800  2.652E8
16242.100  0.82E5
16245.810  1.643E7
16252.620  7.432E6
16256.080  1.354E6
16259.430  2.704E6
16264.600  1.853E6
16270.280  1.765E7
16277.600  7.624E5
16278.700  6.683E5
16279.750  7.318E6
16291.800  1.437E5
16292.900  0.84E5
16302.260  2.425E7
16303.600  6.397E6
16307.500  7.067E6
16308.200  7.004E6
16311.400  0.62E5
16315.500  1.438E7
16317.150  1.270E8
16339.830  6.038E6
16341.750  6.411E7
16345.700  3.548E6
16346.500  1.211E6
16350.650  1.289E8
16351.960  1.280E8
16356.660  3.255E6
16359.040  3.141E6
16360.400  3.225E7
16363.870  5.845E6
16364.920  5.710E6
16369.010  4.362E6
16372.610  3.513E6
16383.400  0.62E5
16388.500  1.451E8
16393.061  2.006E5
16394.381  2.446E5
16397.131  3.349E6
16398.199  1.119E6
16402.200  0.6E5
16409.199  2.910E6
16414.730  6.639E7
16430.300  4.238E5

Chip A
------
16475.580  4.202E7
16477.289  4.233E7
16479.061  9.573E7
16484.039  4.772E5
16489.700  0.93E5
16502.461  2.615E8
16517.949  0.62E5
16519.619  0.59E5
16521.189  1.700E5
16524.670  1.102E5
16528.199  4.198E6
16530.801  3.681E6
16532.350  1.081E6
16539.250  4.452E6
16540.100  1.678E5
16543.260  3.027E6
16544.360  5.254E5
16553.950  9.218E7
16559.400  2.678E6
16585.920  8.841E6
16586.930  8.369E6
16595.800  1.318E5
16603.100  1.241E5
16605.700  0.97E5
16609.500  5.121E5
16610.080  1.409E7
16612.130  1.332E7
16636.860  3.000E5
16638.790  2.658E5
16654.620  5.826E5
16659.300  9.300E5
16660.680  2.017E6
16666.870  1.252E6
16669.900  0.57E5
16689.000  3.053E7
16689.700  2.970E7
16692.580  5.409E8
16700.400  0.62E5
16702.270  9.043E6
16703.490  8.971E6
16708.740  9.945E7
16709.460  9.692E7
16712.310  1.676E6
16714.800  2.132E5
16718.420  2.236E6
16719.150  3.403E6
16723.700  3.542E6
16724.300  3.335E6
16725.670  3.392E6
16731.840  3.246E7
16733.680  3.504E7
16734.600  4.252E6
16750.500  1.774E5
16751.300  1.995E5
16754.150  5.822E6
16755.300  1.163E6
16756.500  5.888E6
16758.900  0.5E5
16762.210  8.975E6
16765.560  8.877E6
16773.500  0.57E5
16794.270  6.294E5
16800.000  2.079E6
16801.300  1.281E5
16802.200  1.386E5
16803.200  0.68E5
16805.270  2.283E6
16840.640  7.533E7
16845.320  4.718E5
16853.010  5.315E5
16871.290  2.473E5
16876.780  1.965E6
16881.900  0.95E5
16883.650  7.872E5
16887.380  0.4E5
16889.120  2.136E6
16890.890  1.763E6
16896.800  3.894E5
16897.600  3.367E5
16899.790  1.507E6
16903.640  2.598E8
16907.300  2.370E6
16908.900  2.099E6
16910.200  2.062E6
16913.840  1.552E6
16925.700  0.64E5
16945.580  3.468E5